File: Battery Data/Gamry Data/LiB Cyclic Test/CHARGE_DISCHARGE/DISCHARGE_1.DTA
EXPLAIN
TAG	PWR800_DISCHARGE
TITLE	LABEL	PWR Cyclic Charge Discharge - Discharge Step	Test &Identifier
DATE	LABEL	5/3/2024	Date
TIME	LABEL	10:44:03	Time
NOTES	NOTES	1	&Notes...
	EEMB 3.7V LIR2025 coin battery.
PSTAT	PSTAT	IFC1010-39159	Potentiostat
CAPACITY	QUANT	4.00000E-002	Capacity (A-hr)
CELLTYPE	SELECTOR	1	&Cell Type
WORKINGCONNECTION	SELECTOR	0	&Working Lead
MAXDISCHARGETIME	VARIABLEANDUNITS	1.08000E+004	s	3.00000E+000	hour(s)	Max &Discharge Time
DISCHARGEMODE	MULTIPARAM	0	2.00000E-002	&Discharge Mode	Constant Current	Amp(s)
VOLTAGEFINISH	TWOPARAM	F	1.00000E-003	3.60000E+003	Voltage Finish	 I (A) < 	Max Time(s)
SAMPLETIME	QUANT	5.00000E+000	Sa&mple Period (s)
DISCHARGESTOPAT1	MULTIPARAM	1	3.20000E+000	Discharge Stop At &1	|Voltage| < Limit	V
DISCHARGESTOPAT2	MULTIPARAM	0	0.00000E+000	Discharge Stop At &2	None	N/A
AESBHCSELECTOR	TOGGLE	F	Save Both Half Cells
IRCOMP	TOGGLE	F	IR &Measure
EOC	QUANT	0	Open Circuit (V)
SEQUENCER	TOGGLE	TRUE	Run as Sequence
PSTATMODEL	IQUANT	64	Pstat Model
PSTATSECTION	LABEL	IFC1010-39159	Pstat Section
PSTATSERIALNO	LABEL	39159	Pstat Serial Number
CTRLMODE	IQUANT	0	Control Mode
ELECTROMETER	IQUANT	0	RE=0 or CS=1
IESTAB	IQUANT	0	I/E Stability
CASPEED	IQUANT	4	Control Amp Speed
CONVENTION	IQUANT	1	Current Convention
ICHRANGE	IQUANT	2	Ich Range
ICHRANGEMODE	TOGGLE	T	Ich Auto Range
ICHOFFSETENABLE	TOGGLE	F	Ich Offset Enable
ICHOFFSET	QUANT	0	Ich Offset (V)
ICHFILTER	IQUANT	1	Ich Filter
VCHRANGE	IQUANT	3	Vch Range
VCHRANGEMODE	TOGGLE	T	Vch Auto Range
VCHOFFSETENABLE	TOGGLE	F	Vch Offset Enable
VCHOFFSET	QUANT	0	Vch Offset (V)
VCHFILTER	IQUANT	1	Vch Filter
IERANGELOWERLIMIT	IQUANT	7	I/E Range Lower Limit
IERANGEMODE	TOGGLE	F	I/E AutoRange
IERANGE	IQUANT	11	I/E Range
ACHSELECT	IQUANT	0	Ach Select
ACHRANGE	IQUANT	2	Ach Range
ACHOFFSETENABLE	TOGGLE	F	Ach Offset Enable
ACHOFFSET	QUANT	0	Ach Offset (V)
ACHFILTER	IQUANT	1	Ach Filter
SENSECABLEID	IQUANT	14	Sense Cable ID
PWRCABLEID	IQUANT	14	Power Cable ID
DCCALDATE	LABEL	4/24/2024	DC Calibration Date
ACCALDATE	LABEL	3/22/2024	AC Calibration Date
FRAMEWORKVERSION	LABEL	7.10.3	Framework Version
INSTRUMENTVERSION	LABEL	4.91	Instrument Version
COMMVERSION	LABEL	3.10	Communications Version
CPUPLDVERSION	LABEL	2.50	CPU PLD Version
CTRLPLDVERSION	LABEL	0.00	CTRL PLD Version
PSTATPLDVERSION	LABEL	0.00	PSTAT PLD Version
CURVE	TABLE	35
	Pt	T	Vf	Im	Vu	Pwr	Sig	Ach	Temp	IERange	Over
	#	s	V	A	V	W	V	V	deg C	#	bits
	0	5	3.45214E+000	-2.00096E-002	0.00000E+000	-6.90762E-002	-6.00386E-001	0.00000E+000	1.56486E+003	11	...........
	1	10	3.44261E+000	-2.00095E-002	0.00000E+000	-6.88851E-002	-6.00386E-001	0.00000E+000	1.56468E+003	11	...........
	2	15	3.43486E+000	-2.00096E-002	0.00000E+000	-6.87302E-002	-6.00386E-001	0.00000E+000	1.56468E+003	11	...........
	3	20	3.42772E+000	-2.00095E-002	0.00000E+000	-6.85871E-002	-6.00386E-001	0.00000E+000	1.56466E+003	11	...........
	4	25	3.42105E+000	-2.00095E-002	0.00000E+000	-6.84535E-002	-6.00386E-001	0.00000E+000	1.56468E+003	11	...........
	5	30	3.41461E+000	-2.00095E-002	0.00000E+000	-6.83247E-002	-6.00386E-001	0.00000E+000	1.56468E+003	11	...........
	6	35	3.40836E+000	-2.00095E-002	0.00000E+000	-6.81995E-002	-6.00386E-001	0.00000E+000	1.56463E+003	11	...........
	7	40	3.40218E+000	-2.00095E-002	0.00000E+000	-6.80761E-002	-6.00386E-001	0.00000E+000	1.56467E+003	11	...........
	8	45	3.39609E+000	-2.00095E-002	0.00000E+000	-6.79541E-002	-6.00386E-001	0.00000E+000	1.56468E+003	11	...........
	9	50	3.39005E+000	-2.00095E-002	0.00000E+000	-6.78333E-002	-6.00386E-001	0.00000E+000	1.56468E+003	11	...........
	10	55	3.38398E+000	-2.00095E-002	0.00000E+000	-6.77118E-002	-6.00386E-001	0.00000E+000	1.56463E+003	11	...........
	11	60	3.37782E+000	-2.00095E-002	0.00000E+000	-6.75886E-002	-6.00386E-001	0.00000E+000	1.56468E+003	11	...........
	12	65	3.37164E+000	-2.00095E-002	0.00000E+000	-6.74649E-002	-6.00386E-001	0.00000E+000	1.56468E+003	11	...........
	13	70	3.36546E+000	-2.00095E-002	0.00000E+000	-6.73414E-002	-6.00386E-001	0.00000E+000	1.56468E+003	11	...........
	14	75	3.35917E+000	-2.00095E-002	0.00000E+000	-6.72153E-002	-6.00386E-001	0.00000E+000	1.56468E+003	11	...........
	15	80	3.35282E+000	-2.00095E-002	0.00000E+000	-6.70884E-002	-6.00386E-001	0.00000E+000	1.56468E+003	11	...........
	16	85	3.34648E+000	-2.00095E-002	0.00000E+000	-6.69613E-002	-6.00386E-001	0.00000E+000	1.56468E+003	11	...........
	17	90	3.33994E+000	-2.00095E-002	0.00000E+000	-6.68307E-002	-6.00386E-001	0.00000E+000	1.56468E+003	11	...........
	18	95	3.33333E+000	-2.00095E-002	0.00000E+000	-6.66985E-002	-6.00386E-001	0.00000E+000	1.56468E+003	11	...........
	19	100	3.32650E+000	-2.00096E-002	0.00000E+000	-6.65618E-002	-6.00386E-001	0.00000E+000	1.56468E+003	11	...........
	20	105	3.31958E+000	-2.00096E-002	0.00000E+000	-6.64234E-002	-6.00386E-001	0.00000E+000	1.56468E+003	11	...........
	21	110	3.31241E+000	-2.00096E-002	0.00000E+000	-6.62800E-002	-6.00386E-001	0.00000E+000	1.56468E+003	11	...........
	22	115	3.30508E+000	-2.00097E-002	0.00000E+000	-6.61334E-002	-6.00386E-001	0.00000E+000	1.56468E+003	11	...........
	23	120	3.29762E+000	-2.00096E-002	0.00000E+000	-6.59841E-002	-6.00386E-001	0.00000E+000	1.56468E+003	11	...........
	24	125	3.29005E+000	-2.00096E-002	0.00000E+000	-6.58325E-002	-6.00386E-001	0.00000E+000	1.56468E+003	11	...........
	25	130	3.28215E+000	-2.00096E-002	0.00000E+000	-6.56745E-002	-6.00386E-001	0.00000E+000	1.56468E+003	11	...........
	26	135	3.27405E+000	-2.00095E-002	0.00000E+000	-6.55122E-002	-6.00386E-001	0.00000E+000	1.56466E+003	11	...........
	27	140	3.26562E+000	-2.00096E-002	0.00000E+000	-6.53436E-002	-6.00386E-001	0.00000E+000	1.56466E+003	11	...........
	28	145	3.25687E+000	-2.00095E-002	0.00000E+000	-6.51685E-002	-6.00386E-001	0.00000E+000	1.56468E+003	11	...........
	29	150	3.24777E+000	-2.00096E-002	0.00000E+000	-6.49866E-002	-6.00386E-001	0.00000E+000	1.56467E+003	11	...........
	30	155	3.23836E+000	-2.00095E-002	0.00000E+000	-6.47980E-002	-6.00386E-001	0.00000E+000	1.56468E+003	11	...........
	31	160	3.22846E+000	-2.00095E-002	0.00000E+000	-6.45997E-002	-6.00386E-001	0.00000E+000	1.56468E+003	11	...........
	32	165	3.21816E+000	-2.00095E-002	0.00000E+000	-6.43937E-002	-6.00386E-001	0.00000E+000	1.56468E+003	11	...........
	33	170	3.20744E+000	-2.00095E-002	0.00000E+000	-6.41791E-002	-6.00386E-001	0.00000E+000	1.56467E+003	11	...........
	34	170.772	3.20103E+000	-2.00096E-002	0.00000E+000	-6.40511E-002	-6.00386E-001	0.00000E+000	1.56465E+003	11	...........
STARTTIMEOFFSET	QUANT	0	Start Time Offset (s)