File: Battery Data/Lydia_data/Salt water CSV/1M salt water.CSV
Wavenumber,Absorbance (I),Background (I0),T,A
4.00E+02,5.18E-02,2.55E-01,2.04E-01,0.691409
4.17E+02,1.07E-01,4.59E-01,2.32E-01,0.633733
4.34E+02,1.77E-01,7.31E-01,2.42E-01,0.6162655
4.51E+02,2.31E-01,9.21E-01,2.50E-01,0.6012944
4.68E+02,2.91E-01,1.07E+00,2.73E-01,0.564297
4.85E+02,3.31E-01,1.29E+00,2.56E-01,0.591982
5.01E+02,4.28E-01,1.59E+00,2.69E-01,0.570262
5.18E+02,5.40E-01,1.94E+00,2.79E-01,0.55507
5.35E+02,6.64E-01,2.29E+00,2.90E-01,0.537795
5.52E+02,7.35E-01,2.45E+00,3.00E-01,0.522733
5.69E+02,8.19E-01,2.63E+00,3.11E-01,0.50702
5.86E+02,9.30E-01,2.81E+00,3.30E-01,0.480872
6.03E+02,1.04E+00,3.03E+00,3.44E-01,0.463289
6.20E+02,1.17E+00,3.23E+00,3.62E-01,0.441257
6.36E+02,1.30E+00,3.41E+00,3.80E-01,0.419695
6.53E+02,1.41E+00,3.51E+00,4.01E-01,0.396321
6.70E+02,1.43E+00,3.38E+00,4.25E-01,0.3721
6.87E+02,1.71E+00,3.84E+00,4.46E-01,0.350708
7.04E+02,1.91E+00,4.06E+00,4.70E-01,0.327568
7.21E+02,2.06E+00,4.13E+00,4.98E-01,0.302824
7.38E+02,2.21E+00,4.21E+00,5.24E-01,0.280886
7.55E+02,2.39E+00,4.33E+00,5.53E-01,0.257231
7.71E+02,2.57E+00,4.42E+00,5.81E-01,0.23562
7.88E+02,2.71E+00,4.43E+00,6.12E-01,0.213476
8.05E+02,2.83E+00,4.42E+00,6.40E-01,0.193719
8.22E+02,3.04E+00,4.51E+00,6.74E-01,0.171449
8.39E+02,3.20E+00,4.54E+00,7.06E-01,0.151109
8.56E+02,3.41E+00,4.62E+00,7.38E-01,0.132053
8.73E+02,3.64E+00,4.76E+00,7.66E-01,0.115829
8.90E+02,3.91E+00,4.92E+00,7.93E-01,0.100463
9.06E+02,4.16E+00,5.10E+00,8.17E-01,0.0877154
9.23E+02,4.45E+00,5.31E+00,8.38E-01,0.0766351
9.40E+02,4.75E+00,5.57E+00,8.54E-01,0.0687704
9.57E+02,5.01E+00,5.79E+00,8.67E-01,0.06223
9.74E+02,5.18E+00,5.92E+00,8.76E-01,0.05772295
9.91E+02,5.28E+00,5.99E+00,8.82E-01,0.0544816
1.01E+03,5.30E+00,5.98E+00,8.86E-01,0.0525816
1.02E+03,5.16E+00,5.81E+00,8.88E-01,0.0516863
1.04E+03,5.02E+00,5.63E+00,8.91E-01,0.050126
1.06E+03,4.88E+00,5.45E+00,8.95E-01,0.04822
1.08E+03,4.85E+00,5.42E+00,8.96E-01,0.047831
1.09E+03,5.03E+00,5.61E+00,8.96E-01,0.0478278
1.11E+03,5.33E+00,5.94E+00,8.98E-01,0.0469615
1.13E+03,5.78E+00,6.42E+00,9.01E-01,0.045288
1.14E+03,6.12E+00,6.79E+00,9.02E-01,0.0446629
1.16E+03,6.48E+00,7.17E+00,9.03E-01,0.0444264
1.18E+03,6.78E+00,7.51E+00,9.03E-01,0.0444568
1.19E+03,7.06E+00,7.81E+00,9.04E-01,0.0440452
1.21E+03,7.29E+00,8.07E+00,9.03E-01,0.0440904
1.23E+03,7.49E+00,8.29E+00,9.03E-01,0.0442043
1.24E+03,7.68E+00,8.51E+00,9.03E-01,0.0444726
1.26E+03,7.60E+00,8.46E+00,8.98E-01,0.0467447
1.28E+03,7.89E+00,8.74E+00,9.03E-01,0.044348
1.29E+03,7.99E+00,8.84E+00,9.03E-01,0.0441762
1.31E+03,8.03E+00,8.88E+00,9.04E-01,0.0437869
1.33E+03,8.09E+00,8.95E+00,9.04E-01,0.0439189
1.35E+03,8.03E+00,8.88E+00,9.04E-01,0.0437347
1.36E+03,7.60E+00,8.41E+00,9.04E-01,0.0440506
1.38E+03,7.78E+00,8.61E+00,9.04E-01,0.0437625
1.40E+03,7.50E+00,8.29E+00,9.04E-01,0.043755
1.41E+03,7.80E+00,8.63E+00,9.04E-01,0.0439249
1.43E+03,7.64E+00,8.46E+00,9.03E-01,0.0442017
1.45E+03,7.76E+00,8.60E+00,9.02E-01,0.0446345
1.46E+03,7.75E+00,8.59E+00,9.01E-01,0.0451504
1.48E+03,8.12E+00,9.03E+00,9.00E-01,0.0457685
1.50E+03,7.43E+00,8.28E+00,8.97E-01,0.0472005
1.51E+03,7.69E+00,8.61E+00,8.93E-01,0.0491295
1.53E+03,7.53E+00,8.49E+00,8.87E-01,0.0519725
1.55E+03,7.07E+00,8.05E+00,8.78E-01,0.0564611
1.56E+03,7.05E+00,8.17E+00,8.63E-01,0.063741
1.58E+03,6.93E+00,8.28E+00,8.38E-01,0.076954
1.60E+03,6.53E+00,8.24E+00,7.92E-01,0.101292
1.62E+03,5.48E+00,7.55E+00,7.25E-01,0.139539
1.63E+03,5.32E+00,7.85E+00,6.78E-01,0.16884
1.65E+03,5.05E+00,7.25E+00,6.96E-01,0.157116
1.67E+03,5.67E+00,7.52E+00,7.53E-01,0.123001
1.68E+03,5.32E+00,6.52E+00,8.15E-01,0.0887339
1.70E+03,5.10E+00,5.87E+00,8.69E-01,0.060759
1.72E+03,5.42E+00,5.96E+00,9.09E-01,0.0416645
1.73E+03,5.27E+00,5.66E+00,9.32E-01,0.0306068
1.75E+03,5.54E+00,5.85E+00,9.47E-01,0.0238247
1.77E+03,5.59E+00,5.84E+00,9.56E-01,0.019406
1.78E+03,5.28E+00,5.49E+00,9.62E-01,0.01678744
1.80E+03,4.85E+00,5.02E+00,9.66E-01,0.015046
1.82E+03,4.14E+00,4.27E+00,9.69E-01,0.0136606
1.83E+03,3.61E+00,3.72E+00,9.71E-01,0.0129199
1.85E+03,3.14E+00,3.23E+00,9.71E-01,0.0125759
1.87E+03,2.65E+00,2.72E+00,9.72E-01,0.0122811
1.89E+03,2.39E+00,2.45E+00,9.73E-01,0.0116945
1.90E+03,2.04E+00,2.09E+00,9.72E-01,0.0121688
1.92E+03,1.67E+00,1.72E+00,9.73E-01,0.0118392
1.94E+03,1.28E+00,1.32E+00,9.71E-01,0.0126543
1.95E+03,9.25E-01,9.55E-01,9.69E-01,0.0138549
1.97E+03,6.20E-01,6.39E-01,9.71E-01,0.0129008
1.99E+03,6.97E-01,7.18E-01,9.71E-01,0.0129481
2.00E+03,6.52E-01,6.75E-01,9.67E-01,0.0146756
2.02E+03,5.52E-01,5.69E-01,9.71E-01,0.0127021
2.04E+03,5.86E-01,6.10E-01,9.60E-01,0.0176807
2.05E+03,9.27E-01,9.65E-01,9.61E-01,0.0173599
2.07E+03,1.13E+00,1.19E+00,9.56E-01,0.0196247
2.09E+03,1.37E+00,1.44E+00,9.56E-01,0.01967006
2.10E+03,1.38E+00,1.45E+00,9.55E-01,0.0201949
2.12E+03,1.39E+00,1.46E+00,9.55E-01,0.0198083
2.14E+03,8.79E-01,9.20E-01,9.55E-01,0.01984692
2.16E+03,5.22E-01,5.44E-01,9.60E-01,0.01774254
2.17E+03,6.23E-01,6.51E-01,9.58E-01,0.0187239
2.19E+03,7.24E-01,7.53E-01,9.62E-01,0.017034
2.21E+03,8.73E-01,9.05E-01,9.64E-01,0.01590674
2.22E+03,1.02E+00,1.06E+00,9.65E-01,0.01531453
2.24E+03,1.23E+00,1.27E+00,9.67E-01,0.0147513
2.26E+03,1.46E+00,1.51E+00,9.69E-01,0.0137836
2.27E+03,1.84E+00,1.90E+00,9.70E-01,0.0131644
2.29E+03,2.63E+00,2.71E+00,9.72E-01,0.0123249
2.31E+03,3.28E+00,3.36E+00,9.75E-01,0.0111816
2.32E+03,3.87E+00,3.97E+00,9.76E-01,0.0104719
2.34E+03,3.79E+00,3.86E+00,9.80E-01,0.008840998
2.36E+03,3.33E+00,3.40E+00,9.82E-01,0.008068547
2.37E+03,3.63E+00,3.69E+00,9.82E-01,0.008015978
2.39E+03,3.83E+00,3.91E+00,9.81E-01,0.008457817
2.41E+03,3.43E+00,3.49E+00,9.82E-01,0.007959691
2.43E+03,3.23E+00,3.28E+00,9.83E-01,0.007368359
2.44E+03,3.13E+00,3.18E+00,9.84E-01,0.007053083
2.46E+03,3.18E+00,3.23E+00,9.84E-01,0.006972061
2.48E+03,3.14E+00,3.18E+00,9.85E-01,0.006547653
2.49E+03,3.09E+00,3.14E+00,9.86E-01,0.006082308
2.51E+03,3.08E+00,3.12E+00,9.86E-01,0.005925279
2.53E+03,3.08E+00,3.12E+00,9.87E-01,0.005501263
2.54E+03,3.13E+00,3.17E+00,9.88E-01,0.005183148
2.56E+03,3.24E+00,3.28E+00,9.88E-01,0.00521648
2.58E+03,3.44E+00,3.48E+00,9.88E-01,0.005117062
2.59E+03,3.76E+00,3.81E+00,9.89E-01,0.004727005
2.61E+03,4.25E+00,4.30E+00,9.89E-01,0.004746801
2.63E+03,4.97E+00,5.02E+00,9.88E-01,0.005024678
2.64E+03,5.93E+00,6.00E+00,9.88E-01,0.005087887
2.66E+03,6.90E+00,6.98E+00,9.88E-01,0.005025608
2.68E+03,6.95E+00,7.04E+00,9.88E-01,0.005319382
2.70E+03,6.88E+00,6.97E+00,9.87E-01,0.005699144
2.71E+03,6.80E+00,6.89E+00,9.87E-01,0.005879224
2.73E+03,6.72E+00,6.82E+00,9.85E-01,0.006402626
2.75E+03,6.64E+00,6.75E+00,9.85E-01,0.006779737
2.76E+03,6.55E+00,6.67E+00,9.82E-01,0.007693162
2.78E+03,6.46E+00,6.59E+00,9.81E-01,0.008482254
2.80E+03,6.36E+00,6.50E+00,9.79E-01,0.009068261
2.81E+03,6.26E+00,6.41E+00,9.77E-01,0.0102421
2.83E+03,6.15E+00,6.31E+00,9.73E-01,0.0117422
2.85E+03,5.97E+00,6.17E+00,9.68E-01,0.0139468
2.86E+03,5.85E+00,6.07E+00,9.65E-01,0.0155969
2.88E+03,5.75E+00,5.99E+00,9.60E-01,0.0177353
2.90E+03,5.60E+00,5.87E+00,9.53E-01,0.02085448
2.91E+03,5.39E+00,5.71E+00,9.44E-01,0.0248529
2.93E+03,5.21E+00,5.57E+00,9.35E-01,0.0289754
2.95E+03,5.13E+00,5.54E+00,9.26E-01,0.0332979
2.97E+03,4.96E+00,5.43E+00,9.13E-01,0.039569
2.98E+03,4.90E+00,5.44E+00,9.01E-01,0.0454816
3.00E+03,4.75E+00,5.37E+00,8.84E-01,0.0535779
3.02E+03,4.55E+00,5.27E+00,8.65E-01,0.0631957
3.03E+03,4.37E+00,5.19E+00,8.41E-01,0.0750247
3.05E+03,4.17E+00,5.11E+00,8.16E-01,0.0885649
3.07E+03,3.95E+00,5.03E+00,7.86E-01,0.104744
3.08E+03,3.74E+00,4.96E+00,7.53E-01,0.123153
3.10E+03,3.50E+00,4.88E+00,7.18E-01,0.144161
3.12E+03,3.27E+00,4.81E+00,6.80E-01,0.167374
3.13E+03,3.03E+00,4.73E+00,6.41E-01,0.193134
3.15E+03,2.81E+00,4.66E+00,6.03E-01,0.219708
3.17E+03,2.60E+00,4.59E+00,5.67E-01,0.246468
3.18E+03,2.42E+00,4.52E+00,5.35E-01,0.271561
3.20E+03,2.28E+00,4.48E+00,5.09E-01,0.293091
3.22E+03,2.18E+00,4.45E+00,4.90E-01,0.310079
3.24E+03,2.12E+00,4.43E+00,4.78E-01,0.320656
3.25E+03,2.09E+00,4.44E+00,4.71E-01,0.326695
3.27E+03,2.09E+00,4.47E+00,4.67E-01,0.330531
3.29E+03,2.10E+00,4.51E+00,4.66E-01,0.331809
3.30E+03,2.10E+00,4.54E+00,4.63E-01,0.334052
3.32E+03,2.10E+00,4.55E+00,4.62E-01,0.335293
3.34E+03,2.10E+00,4.56E+00,4.61E-01,0.335894
3.35E+03,2.11E+00,4.56E+00,4.63E-01,0.334463
3.37E+03,2.13E+00,4.54E+00,4.70E-01,0.327989
3.39E+03,2.17E+00,4.51E+00,4.82E-01,0.317347
3.40E+03,2.23E+00,4.47E+00,4.99E-01,0.301823
3.42E+03,2.29E+00,4.40E+00,5.21E-01,0.283086
3.44E+03,2.39E+00,4.36E+00,5.47E-01,0.262174
3.45E+03,2.48E+00,4.32E+00,5.74E-01,0.241046
3.47E+03,2.57E+00,4.27E+00,6.02E-01,0.220585
3.49E+03,2.66E+00,4.22E+00,6.31E-01,0.200113
3.51E+03,2.75E+00,4.17E+00,6.60E-01,0.180455
3.52E+03,2.84E+00,4.12E+00,6.89E-01,0.161684
3.54E+03,2.94E+00,4.10E+00,7.19E-01,0.143365
3.56E+03,3.01E+00,4.02E+00,7.48E-01,0.125887
3.57E+03,3.04E+00,3.92E+00,7.76E-01,0.109861
3.59E+03,2.95E+00,3.67E+00,8.04E-01,0.0949465
3.61E+03,3.02E+00,3.64E+00,8.30E-01,0.0809563
3.62E+03,3.14E+00,3.66E+00,8.56E-01,0.0673832
3.64E+03,3.23E+00,3.66E+00,8.84E-01,0.0534437
3.66E+03,3.18E+00,3.47E+00,9.16E-01,0.0381639
3.67E+03,3.09E+00,3.27E+00,9.46E-01,0.0243145
3.69E+03,3.24E+00,3.35E+00,9.67E-01,0.014458
3.71E+03,3.50E+00,3.58E+00,9.79E-01,0.009244891
3.72E+03,3.54E+00,3.59E+00,9.84E-01,0.006920002
3.74E+03,3.62E+00,3.66E+00,9.88E-01,0.005370805
3.76E+03,3.78E+00,3.82E+00,9.90E-01,0.004464698
3.78E+03,4.07E+00,4.11E+00,9.91E-01,0.003896936
3.79E+03,4.16E+00,4.20E+00,9.91E-01,0.003720898
3.81E+03,4.08E+00,4.11E+00,9.92E-01,0.003483333
3.83E+03,4.18E+00,4.21E+00,9.93E-01,0.003062499
3.84E+03,4.13E+00,4.16E+00,9.93E-01,0.002896892
3.86E+03,4.28E+00,4.31E+00,9.94E-01,0.002805892
3.88E+03,4.30E+00,4.32E+00,9.93E-01,0.002855858
3.89E+03,4.24E+00,4.27E+00,9.94E-01,0.002823186
3.91E+03,4.37E+00,4.40E+00,9.94E-01,0.002752331
3.93E+03,4.31E+00,4.34E+00,9.94E-01,0.002746973
3.94E+03,4.27E+00,4.29E+00,9.94E-01,0.002700839
3.96E+03,4.28E+00,4.31E+00,9.94E-01,0.002674711
3.98E+03,4.25E+00,4.28E+00,9.94E-01,0.002648151
3.99E+03,4.21E+00,4.24E+00,9.94E-01,0.002481181
4.00E+03,4.20E+00,4.23E+00,9.94E-01,0.002414504