File: Battery Data/Lydia_data/Salt water CSV/2M salt water.CSV
Wavenumber,Absorbance (I),Background (I0),T,A
4.00E+02,5.33E-02,2.55E-01,2.09E-01,0.679215
4.17E+02,1.06E-01,4.59E-01,2.31E-01,0.636784
4.34E+02,1.59E-01,7.31E-01,2.17E-01,0.66374
4.51E+02,2.21E-01,9.21E-01,2.40E-01,0.619667
4.68E+02,2.72E-01,1.07E+00,2.54E-01,0.594498
4.85E+02,3.28E-01,1.29E+00,2.54E-01,0.595056
5.01E+02,4.31E-01,1.59E+00,2.71E-01,0.567229
5.18E+02,5.46E-01,1.94E+00,2.82E-01,0.55006
5.35E+02,6.71E-01,2.29E+00,2.93E-01,0.533607
5.52E+02,7.57E-01,2.45E+00,3.09E-01,0.509989
5.69E+02,8.44E-01,2.63E+00,3.21E-01,0.493859
5.86E+02,9.59E-01,2.81E+00,3.41E-01,0.46744
6.03E+02,1.08E+00,3.03E+00,3.56E-01,0.448576
6.20E+02,1.21E+00,3.23E+00,3.75E-01,0.426319
6.36E+02,1.35E+00,3.41E+00,3.94E-01,0.404253
6.53E+02,1.46E+00,3.51E+00,4.17E-01,0.379535
6.70E+02,1.49E+00,3.38E+00,4.41E-01,0.356039
6.87E+02,1.78E+00,3.84E+00,4.63E-01,0.334076
7.04E+02,1.98E+00,4.06E+00,4.87E-01,0.312912
7.21E+02,2.11E+00,4.13E+00,5.12E-01,0.290559
7.38E+02,2.28E+00,4.21E+00,5.40E-01,0.267595
7.55E+02,2.45E+00,4.33E+00,5.67E-01,0.246638
7.71E+02,2.63E+00,4.42E+00,5.95E-01,0.225755
7.88E+02,2.77E+00,4.43E+00,6.25E-01,0.203978
8.05E+02,2.89E+00,4.42E+00,6.54E-01,0.184166
8.22E+02,3.09E+00,4.51E+00,6.86E-01,0.163754
8.39E+02,3.25E+00,4.54E+00,7.17E-01,0.144615
8.56E+02,3.45E+00,4.62E+00,7.46E-01,0.127289
8.73E+02,3.68E+00,4.76E+00,7.74E-01,0.111268
8.90E+02,3.94E+00,4.92E+00,8.00E-01,0.0971237
9.06E+02,4.19E+00,5.10E+00,8.21E-01,0.085519
9.23E+02,4.46E+00,5.31E+00,8.40E-01,0.075714
9.40E+02,4.76E+00,5.57E+00,8.55E-01,0.0679866
9.57E+02,5.01E+00,5.79E+00,8.66E-01,0.0625254
9.74E+02,5.18E+00,5.92E+00,8.74E-01,0.0583103
9.91E+02,5.28E+00,5.99E+00,8.81E-01,0.0549382
1.01E+03,5.30E+00,5.98E+00,8.86E-01,0.0527142
1.02E+03,5.16E+00,5.81E+00,8.89E-01,0.0511705
1.04E+03,5.02E+00,5.63E+00,8.91E-01,0.05016948
1.06E+03,4.87E+00,5.45E+00,8.94E-01,0.0488533
1.08E+03,4.85E+00,5.42E+00,8.95E-01,0.0482474
1.09E+03,5.02E+00,5.61E+00,8.95E-01,0.0482122
1.11E+03,5.32E+00,5.94E+00,8.97E-01,0.04735
1.13E+03,5.76E+00,6.42E+00,8.98E-01,0.0468891
1.14E+03,6.10E+00,6.79E+00,8.99E-01,0.0462667
1.16E+03,6.45E+00,7.17E+00,8.99E-01,0.0460838
1.18E+03,6.75E+00,7.51E+00,8.99E-01,0.0460737
1.19E+03,7.03E+00,7.81E+00,9.00E-01,0.04591735
1.21E+03,7.26E+00,8.07E+00,9.00E-01,0.0457187
1.23E+03,7.46E+00,8.29E+00,9.00E-01,0.0458528
1.24E+03,7.65E+00,8.51E+00,9.00E-01,0.0458159
1.26E+03,7.60E+00,8.46E+00,8.98E-01,0.0464948
1.28E+03,7.87E+00,8.74E+00,9.00E-01,0.0455881
1.29E+03,7.96E+00,8.84E+00,9.01E-01,0.0453994
1.31E+03,8.01E+00,8.88E+00,9.02E-01,0.0448623
1.33E+03,8.08E+00,8.95E+00,9.02E-01,0.0447741
1.35E+03,8.02E+00,8.88E+00,9.02E-01,0.0445936
1.36E+03,7.59E+00,8.41E+00,9.02E-01,0.04466472
1.38E+03,7.77E+00,8.61E+00,9.03E-01,0.0444117
1.40E+03,7.49E+00,8.29E+00,9.03E-01,0.044292
1.41E+03,7.79E+00,8.63E+00,9.03E-01,0.0442664
1.43E+03,7.64E+00,8.46E+00,9.03E-01,0.0444572
1.45E+03,7.75E+00,8.60E+00,9.02E-01,0.0449125
1.46E+03,7.74E+00,8.59E+00,9.01E-01,0.0452523
1.48E+03,8.12E+00,9.03E+00,9.00E-01,0.0457797
1.50E+03,7.43E+00,8.28E+00,8.97E-01,0.0472056
1.51E+03,7.70E+00,8.61E+00,8.93E-01,0.0489699
1.53E+03,7.54E+00,8.49E+00,8.88E-01,0.0518019
1.55E+03,7.07E+00,8.05E+00,8.78E-01,0.0563058
1.56E+03,7.05E+00,8.17E+00,8.63E-01,0.0639301
1.58E+03,6.92E+00,8.28E+00,8.36E-01,0.077817
1.60E+03,6.49E+00,8.24E+00,7.87E-01,0.103895
1.62E+03,5.40E+00,7.55E+00,7.15E-01,0.145786
1.63E+03,5.22E+00,7.85E+00,6.65E-01,0.177162
1.65E+03,4.98E+00,7.25E+00,6.87E-01,0.163337
1.67E+03,5.63E+00,7.52E+00,7.48E-01,0.126156
1.68E+03,5.31E+00,6.52E+00,8.14E-01,0.0895568
1.70E+03,5.11E+00,5.87E+00,8.70E-01,0.0606876
1.72E+03,5.42E+00,5.96E+00,9.10E-01,0.0411824
1.73E+03,5.27E+00,5.66E+00,9.32E-01,0.0305404
1.75E+03,5.54E+00,5.85E+00,9.47E-01,0.0237912
1.77E+03,5.58E+00,5.84E+00,9.56E-01,0.0196746
1.78E+03,5.28E+00,5.49E+00,9.62E-01,0.0168146
1.80E+03,4.84E+00,5.02E+00,9.66E-01,0.0152174
1.82E+03,4.14E+00,4.27E+00,9.68E-01,0.0141496
1.83E+03,3.61E+00,3.72E+00,9.70E-01,0.0134335
1.85E+03,3.13E+00,3.23E+00,9.71E-01,0.0129299
1.87E+03,2.64E+00,2.72E+00,9.72E-01,0.0125239
1.89E+03,2.39E+00,2.45E+00,9.73E-01,0.012027
1.90E+03,2.04E+00,2.09E+00,9.72E-01,0.0124007
1.92E+03,1.67E+00,1.72E+00,9.71E-01,0.0127372
1.94E+03,1.28E+00,1.32E+00,9.71E-01,0.0127407
1.95E+03,9.27E-01,9.55E-01,9.71E-01,0.0128978
1.97E+03,6.21E-01,6.39E-01,9.72E-01,0.0121563
1.99E+03,6.96E-01,7.18E-01,9.70E-01,0.0134063
2.00E+03,6.54E-01,6.75E-01,9.70E-01,0.0132756
2.02E+03,5.52E-01,5.69E-01,9.71E-01,0.0127051
2.04E+03,5.89E-01,6.10E-01,9.66E-01,0.0152443
2.05E+03,9.24E-01,9.65E-01,9.57E-01,0.0190104
2.07E+03,1.13E+00,1.19E+00,9.55E-01,0.0199264
2.09E+03,1.37E+00,1.44E+00,9.55E-01,0.0197744
2.10E+03,1.38E+00,1.45E+00,9.54E-01,0.0203623
2.12E+03,1.39E+00,1.46E+00,9.55E-01,0.01987772
2.14E+03,8.82E-01,9.20E-01,9.59E-01,0.0179809
2.16E+03,5.23E-01,5.44E-01,9.61E-01,0.0174496
2.17E+03,6.25E-01,6.51E-01,9.60E-01,0.0178288
2.19E+03,7.27E-01,7.53E-01,9.65E-01,0.0154319
2.21E+03,8.74E-01,9.05E-01,9.66E-01,0.0150134
2.22E+03,1.02E+00,1.06E+00,9.63E-01,0.0161658
2.24E+03,1.23E+00,1.27E+00,9.68E-01,0.0142107
2.26E+03,1.46E+00,1.51E+00,9.69E-01,0.0138764
2.27E+03,1.85E+00,1.90E+00,9.70E-01,0.0130077
2.29E+03,2.63E+00,2.71E+00,9.71E-01,0.0127542
2.31E+03,3.28E+00,3.36E+00,9.74E-01,0.011384
2.32E+03,3.89E+00,3.97E+00,9.79E-01,0.009235637
2.34E+03,3.80E+00,3.86E+00,9.84E-01,0.006809201
2.36E+03,3.35E+00,3.40E+00,9.87E-01,0.005552943
2.37E+03,3.64E+00,3.69E+00,9.85E-01,0.00670902
2.39E+03,3.83E+00,3.91E+00,9.80E-01,0.008830953
2.41E+03,3.43E+00,3.49E+00,9.81E-01,0.008372262
2.43E+03,3.22E+00,3.28E+00,9.82E-01,0.007927483
2.44E+03,3.13E+00,3.18E+00,9.83E-01,0.007348478
2.46E+03,3.18E+00,3.23E+00,9.83E-01,0.007543297
2.48E+03,3.13E+00,3.18E+00,9.84E-01,0.007114986
2.49E+03,3.09E+00,3.14E+00,9.85E-01,0.0067618
2.51E+03,3.07E+00,3.12E+00,9.85E-01,0.006558104
2.53E+03,3.07E+00,3.12E+00,9.85E-01,0.006366565
2.54E+03,3.12E+00,3.17E+00,9.86E-01,0.006052056
2.56E+03,3.24E+00,3.28E+00,9.87E-01,0.005805897
2.58E+03,3.44E+00,3.48E+00,9.87E-01,0.005588964
2.59E+03,3.76E+00,3.81E+00,9.87E-01,0.005799316
2.61E+03,4.24E+00,4.30E+00,9.87E-01,0.005538484
2.63E+03,4.96E+00,5.02E+00,9.87E-01,0.005900217
2.64E+03,5.92E+00,6.00E+00,9.86E-01,0.005997891
2.66E+03,6.88E+00,6.98E+00,9.86E-01,0.005971084
2.68E+03,6.94E+00,7.04E+00,9.86E-01,0.006179976
2.70E+03,6.87E+00,6.97E+00,9.85E-01,0.006522609
2.71E+03,6.79E+00,6.89E+00,9.85E-01,0.006513517
2.73E+03,6.71E+00,6.82E+00,9.84E-01,0.006946952
2.75E+03,6.63E+00,6.75E+00,9.83E-01,0.007385481
2.76E+03,6.55E+00,6.67E+00,9.82E-01,0.008086765
2.78E+03,6.46E+00,6.59E+00,9.80E-01,0.008692224
2.80E+03,6.36E+00,6.50E+00,9.79E-01,0.009414707
2.81E+03,6.26E+00,6.41E+00,9.76E-01,0.010455
2.83E+03,6.15E+00,6.31E+00,9.73E-01,0.0117642
2.85E+03,5.97E+00,6.17E+00,9.69E-01,0.0138117
2.86E+03,5.86E+00,6.07E+00,9.66E-01,0.015175
2.88E+03,5.76E+00,5.99E+00,9.61E-01,0.01709445
2.90E+03,5.61E+00,5.87E+00,9.55E-01,0.0199571
2.91E+03,5.41E+00,5.71E+00,9.47E-01,0.0235185
2.93E+03,5.23E+00,5.57E+00,9.39E-01,0.0272204
2.95E+03,5.16E+00,5.54E+00,9.31E-01,0.0309749
2.97E+03,5.00E+00,5.43E+00,9.20E-01,0.0361112
2.98E+03,4.94E+00,5.44E+00,9.08E-01,0.0416831
3.00E+03,4.80E+00,5.37E+00,8.93E-01,0.049049
3.02E+03,4.61E+00,5.27E+00,8.75E-01,0.05782748
3.03E+03,4.44E+00,5.19E+00,8.54E-01,0.0683263
3.05E+03,4.25E+00,5.11E+00,8.31E-01,0.08055383
3.07E+03,4.04E+00,5.03E+00,8.03E-01,0.0954198
3.08E+03,3.83E+00,4.96E+00,7.72E-01,0.112222
3.10E+03,3.61E+00,4.88E+00,7.38E-01,0.131806
3.12E+03,3.37E+00,4.81E+00,7.01E-01,0.154005
3.13E+03,3.14E+00,4.73E+00,6.62E-01,0.178832
3.15E+03,2.91E+00,4.66E+00,6.24E-01,0.205095
3.17E+03,2.69E+00,4.59E+00,5.86E-01,0.232118
3.18E+03,2.49E+00,4.52E+00,5.52E-01,0.258418
3.20E+03,2.34E+00,4.48E+00,5.23E-01,0.281429
3.22E+03,2.22E+00,4.45E+00,5.00E-01,0.300616
3.24E+03,2.15E+00,4.43E+00,4.86E-01,0.313714
3.25E+03,2.11E+00,4.44E+00,4.76E-01,0.322228
3.27E+03,2.10E+00,4.47E+00,4.70E-01,0.32751
3.29E+03,2.10E+00,4.51E+00,4.66E-01,0.332069
3.30E+03,2.09E+00,4.54E+00,4.61E-01,0.336765
3.32E+03,2.08E+00,4.55E+00,4.57E-01,0.340446
3.34E+03,2.06E+00,4.56E+00,4.53E-01,0.34427
3.35E+03,2.06E+00,4.56E+00,4.52E-01,0.344612
3.37E+03,2.07E+00,4.54E+00,4.56E-01,0.340638
3.39E+03,2.10E+00,4.51E+00,4.67E-01,0.330822
3.40E+03,2.16E+00,4.47E+00,4.83E-01,0.316042
3.42E+03,2.22E+00,4.40E+00,5.05E-01,0.296996
3.44E+03,2.31E+00,4.36E+00,5.30E-01,0.275818
3.45E+03,2.41E+00,4.32E+00,5.58E-01,0.253714
3.47E+03,2.50E+00,4.27E+00,5.86E-01,0.232177
3.49E+03,2.60E+00,4.22E+00,6.16E-01,0.210114
3.51E+03,2.70E+00,4.17E+00,6.47E-01,0.1892779
3.52E+03,2.79E+00,4.12E+00,6.77E-01,0.169576
3.54E+03,2.90E+00,4.10E+00,7.08E-01,0.150044
3.56E+03,2.97E+00,4.02E+00,7.38E-01,0.131819
3.57E+03,3.01E+00,3.92E+00,7.68E-01,0.11471
3.59E+03,2.92E+00,3.67E+00,7.96E-01,0.0989508
3.61E+03,3.00E+00,3.64E+00,8.24E-01,0.0839716
3.62E+03,3.12E+00,3.66E+00,8.53E-01,0.0692405
3.64E+03,3.22E+00,3.66E+00,8.82E-01,0.054577
3.66E+03,3.18E+00,3.47E+00,9.15E-01,0.0385731
3.67E+03,3.09E+00,3.27E+00,9.45E-01,0.0246673
3.69E+03,3.24E+00,3.35E+00,9.66E-01,0.015156
3.71E+03,3.50E+00,3.58E+00,9.77E-01,0.009923661
3.72E+03,3.53E+00,3.59E+00,9.83E-01,0.007514493
3.74E+03,3.61E+00,3.66E+00,9.86E-01,0.006260567
3.76E+03,3.77E+00,3.82E+00,9.87E-01,0.005553431
3.78E+03,4.06E+00,4.11E+00,9.89E-01,0.004929217
3.79E+03,4.15E+00,4.20E+00,9.89E-01,0.004751974
3.81E+03,4.07E+00,4.11E+00,9.90E-01,0.004512781
3.83E+03,4.17E+00,4.21E+00,9.90E-01,0.004155439
3.84E+03,4.12E+00,4.16E+00,9.91E-01,0.003869467
3.86E+03,4.27E+00,4.31E+00,9.91E-01,0.003861547
3.88E+03,4.29E+00,4.32E+00,9.91E-01,0.003914069
3.89E+03,4.23E+00,4.27E+00,9.91E-01,0.003940749
3.91E+03,4.36E+00,4.40E+00,9.91E-01,0.003783823
3.93E+03,4.30E+00,4.34E+00,9.91E-01,0.00398433
3.94E+03,4.26E+00,4.29E+00,9.91E-01,0.003743924
3.96E+03,4.27E+00,4.31E+00,9.91E-01,0.004008652
3.98E+03,4.25E+00,4.28E+00,9.92E-01,0.003552027
3.99E+03,4.20E+00,4.24E+00,9.92E-01,0.003683468
4.00E+03,4.19E+00,4.23E+00,9.92E-01,0.003525801